File: config_pearl_esc/support_data/coatings/AlMgF2_curve.csv
Wavelength nm,Reflectance
303.502,0.919
313.741,0.914744
320.76,0.910491
330.197,0.905533
339.22,0.900799
348.246,0.894172
356.323,0.88662
364.42,0.879731
373.759,0.873224
381.073,0.870036
391.583,0.867992
400.41,0.868648
409.304,0.871447
417.478,0.875422
426.139,0.880826
434.736,0.886334
443.15,0.890662
451.183,0.894625
461.163,0.899053
469.117,0.902296
477.11,0.905664
483.685,0.907774
493.123,0.910477
501.071,0.911841
512.708,0.913541
521.163,0.914411
530.473,0.915051
545.432,0.915845
555.511,0.916237
565.728,0.916552
574.018,0.916566
585.507,0.915154
590.357,0.914361
600.907,0.912945
611.507,0.911207
617.851,0.910155
629.574,0.907903
637.955,0.906325
645.557,0.905093
655.809,0.901243
664.656,0.896568
670.204,0.893766
680.422,0.888153
689.518,0.883137
698.141,0.878265
708.521,0.872995
717.36,0.868957
724.879,0.865347
733.737,0.861063
742.49,0.857154
751.535,0.852429
758.289,0.848925
769.031,0.84301
777.022,0.838573
785.344,0.833927
792.753,0.829717
798.64,0.826317