File: config_pearl_esc/support_data/coatings/bmc_dm_au.csv
Wavelength nm,Reflectance
250, 0.786301
255.333, 0.835616
259.333, 0.871233
262, 0.819178
266, 0.731507
270, 0.624658
274, 0.728767
276.667, 0.791781
280.667, 0.887671
284.667,0.852055
290, 0.824658
294, 0.775342
299.333, 0.712329
310, 0.712329
314, 0.772603
319.333, 0.854795
330, 0.80274
339.333, 0.731507
342, 0.654795
347.333,0.526027
350, 0.432877
359.333, 0.454795
370,0.389041
390, 0.375342
400.667, 0.375342
410, 0.364384
419.333, 0.367123
431.333, 0.367123
439.333, 0.364384
451.333, 0.364384
460.667, 0.367123
468.667, 0.369863
479.333, 0.383562
491.333, 0.432877
503.333, 0.517808
514, 0.6
520.667, 0.652055
530, 0.706849
550,0.789041
570, 0.838356
578, 0.846575
590, 0.868493
599.333, 0.873973
618, 0.89863
630, 0.909589
640.667, 0.909589
650, 0.920548
662, 0.920548
670,0.915068
680.667, 0.928767
690, 0.923288
700.667, 0.931507
710, 0.931507
720.667,0.936986
730, 0.931507
740.667,0.936986
751.333, 0.928767
760.667, 0.934247
770,0.926027
779.333, 0.934247
790,0.936986
800.667, 0.928767
811.333, 0.934247
830, 0.934247
850, 0.939726
859.333, 0.934247
870, 0.945205
880.667, 0.945205
890, 0.931507
900.667, 0.942466
916.667, 0.942466
930, 0.939726
940.667, 0.950685
951.333, 0.939726
964.667, 0.945205
980.667, 0.939726
990,0.947945
1000.67, 0.942466
1011.33,0.947945
1028.67,0.947945
1040.67, 0.958904
1051.33, 0.942466
1062, 0.953425
1070, 0.958904
1080.67, 0.972603
1091.33, 0.961644